Spectrum Name:,
Description:,
Student ID:,
Detector Used:,
Comments:,
Acquisition Mode:,Mossbauer
Mossbauer Dwell Time:,0.1 mSeconds
Elapsed Passes:,1104008 
High Voltage:,1800
Conversion Gain:,2048
Coarse Gain:,8
Fine Gain:,1.77
ULD:,  45%
LLD:,  28%

Channel Data:
Chan,Dwell(mSec.),Counts
0,      0.10,5830
1,      0.20,5961
2,      0.30,5840
3,      0.40,5935
4,      0.50,5864
5,      0.60,5863
6,      0.70,5881
7,      0.80,5728
8,      0.90,5782
9,      1.00,5900
10,      1.10,5800
11,      1.20,5851
12,      1.30,5755
13,      1.40,5913
14,      1.50,5843
15,      1.60,5839
16,      1.70,5766
17,      1.80,5802
18,      1.90,5837
19,      2.00,5800
20,      2.10,5851
21,      2.20,5679
22,      2.30,5804
23,      2.40,5954
24,      2.50,5843
25,      2.60,5892
26,      2.70,5886
27,      2.80,5953
28,      2.90,5814
29,      3.00,5900
30,      3.10,5884
31,      3.20,5834
32,      3.30,5835
33,      3.40,5798
34,      3.50,5929
35,      3.60,5731
36,      3.70,5766
37,      3.80,5935
38,      3.90,5789
39,      4.00,5747
40,      4.10,5824
41,      4.20,5788
42,      4.30,5819
43,      4.40,5651
44,      4.50,5997
45,      4.60,5761
46,      4.70,5757
47,      4.80,5714
48,      4.90,5611
49,      5.00,5784
50,      5.10,5658
51,      5.20,5674
52,      5.30,5449
53,      5.40,5391
54,      5.50,5415
55,      5.60,5271
56,      5.70,5258
57,      5.80,5275
58,      5.90,5244
59,      6.00,5288
60,      6.10,5358
61,      6.20,5457
62,      6.30,5473
63,      6.40,5472
64,      6.50,5571
65,      6.60,5577
66,      6.70,5684
67,      6.80,5659
68,      6.90,5618
69,      7.00,5772
70,      7.10,5754
71,      7.20,5743
72,      7.30,5750
73,      7.40,5719
74,      7.50,5581
75,      7.60,5890
76,      7.70,5869
77,      7.80,5773
78,      7.90,5709
79,      8.00,5831
80,      8.10,5890
81,      8.20,5816
82,      8.30,5804
83,      8.40,5825
84,      8.50,5900
85,      8.60,5831
86,      8.70,5753
87,      8.80,5784
88,      8.90,5823
89,      9.00,5842
90,      9.10,5819
91,      9.20,5848
92,      9.30,5799
93,      9.40,5886
94,      9.50,5917
95,      9.60,5876
96,      9.70,5699
97,      9.80,5847
98,      9.90,5856
99,     10.00,5841
100,     10.10,5838
101,     10.20,5802
102,     10.30,5871
103,     10.40,5715
104,     10.50,5924
105,     10.60,5775
106,     10.70,5852
107,     10.80,5789
108,     10.90,5890
109,     11.00,5707
110,     11.10,5816
111,     11.20,5813
112,     11.30,5559
113,     11.40,5784
114,     11.50,5886
115,     11.60,5863
116,     11.70,5868
117,     11.80,5663
118,     11.90,5805
119,     12.00,5933
120,     12.10,5866
121,     12.20,5863
122,     12.30,5861
123,     12.40,5819
124,     12.50,5977
125,     12.60,5882
126,     12.70,5877
127,     12.80,5688
128,     12.90,5851
129,     13.00,5783
130,     13.10,5800
131,     13.20,5678
132,     13.30,5930
133,     13.40,5732
134,     13.50,5811
135,     13.60,5927
136,     13.70,5765
137,     13.80,5750
138,     13.90,5693
139,     14.00,5758
140,     14.10,5818
141,     14.20,5824
142,     14.30,5827
143,     14.40,5900
144,     14.50,5947
145,     14.60,5948
146,     14.70,5785
147,     14.80,5850
148,     14.90,5638
149,     15.00,5735
150,     15.10,5754
151,     15.20,5825
152,     15.30,5865
153,     15.40,5807
154,     15.50,5841
155,     15.60,5920
156,     15.70,5833
157,     15.80,5766
158,     15.90,5848
159,     16.00,5737
160,     16.10,5845
161,     16.20,5854
162,     16.30,5971
163,     16.40,5766
164,     16.50,5818
165,     16.60,5822
166,     16.70,5706
167,     16.80,5704
168,     16.90,5831
169,     17.00,5853
170,     17.10,5800
171,     17.20,5776
172,     17.30,5777
173,     17.40,5788
174,     17.50,5843
175,     17.60,5950
176,     17.70,5804
177,     17.80,5931
178,     17.90,5820
179,     18.00,5658
180,     18.10,5823
181,     18.20,5806
182,     18.30,5883
183,     18.40,5871
184,     18.50,5788
185,     18.60,5761
186,     18.70,5836
187,     18.80,5937
188,     18.90,5968
189,     19.00,5883
190,     19.10,5794
191,     19.20,5817
192,     19.30,5831
193,     19.40,5897
194,     19.50,5788
195,     19.60,5695
196,     19.70,5956
197,     19.80,5966
198,     19.90,5840
199,     20.00,5761
200,     20.10,5757
201,     20.20,5674
202,     20.30,5759
203,     20.40,5871
204,     20.50,5837
205,     20.60,5789
206,     20.70,5790
207,     20.80,5887
208,     20.90,5660
209,     21.00,5760
210,     21.10,5935
211,     21.20,5882
212,     21.30,5608
213,     21.40,5821
214,     21.50,5898
215,     21.60,5750
216,     21.70,5845
217,     21.80,5803
218,     21.90,5816
219,     22.00,6028
220,     22.10,5773
221,     22.20,5820
222,     22.30,5791
223,     22.40,5804
224,     22.50,5759
225,     22.60,5781
226,     22.70,5823
227,     22.80,5883
228,     22.90,5914
229,     23.00,5854
230,     23.10,5863
231,     23.20,5846
232,     23.30,5780
233,     23.40,5766
234,     23.50,5808
235,     23.60,5748
236,     23.70,5823
237,     23.80,5920
238,     23.90,5762
239,     24.00,5901
240,     24.10,5862
241,     24.20,5743
242,     24.30,5778
243,     24.40,5845
244,     24.50,5900
245,     24.60,5836
246,     24.70,5803
247,     24.80,5748
248,     24.90,5785
249,     25.00,5929
250,     25.10,5818
251,     25.20,5687
252,     25.30,5750
253,     25.40,5833
254,     25.50,5816
255,     25.60,5817
256,     25.70,5793
257,     25.80,5890
258,     25.90,5811
259,     26.00,5788
260,     26.10,5877
261,     26.20,5847
262,     26.30,5770
263,     26.40,5812
264,     26.50,5809
265,     26.60,5743
266,     26.70,5917
267,     26.80,5884
268,     26.90,5870
269,     27.00,5781
270,     27.10,5815
271,     27.20,5820
272,     27.30,5781
273,     27.40,5796
274,     27.50,5774
275,     27.60,5892
276,     27.70,5891
277,     27.80,5895
278,     27.90,5904
279,     28.00,5859
280,     28.10,5918
281,     28.20,5750
282,     28.30,5741
283,     28.40,5837
284,     28.50,5870
285,     28.60,5846
286,     28.70,5788
287,     28.80,5745
288,     28.90,5812
289,     29.00,5804
290,     29.10,5739
291,     29.20,5815
292,     29.30,5708
293,     29.40,5842
294,     29.50,5780
295,     29.60,5836
296,     29.70,5833
297,     29.80,5707
298,     29.90,5873
299,     30.00,5752
300,     30.10,5858
301,     30.20,5940
302,     30.30,5798
303,     30.40,5727
304,     30.50,5870
305,     30.60,5887
306,     30.70,5885
307,     30.80,5785
308,     30.90,5844
309,     31.00,5852
310,     31.10,5795
311,     31.20,5790
312,     31.30,5881
313,     31.40,5645
314,     31.50,5789
315,     31.60,5814
316,     31.70,5814
317,     31.80,5809
318,     31.90,5768
319,     32.00,5743
320,     32.10,5919
321,     32.20,5826
322,     32.30,5785
323,     32.40,5906
324,     32.50,5735
325,     32.60,5849
326,     32.70,5873
327,     32.80,5750
328,     32.90,5722
329,     33.00,5869
330,     33.10,5890
331,     33.20,5886
332,     33.30,5712
333,     33.40,5727
334,     33.50,5869
335,     33.60,5756
336,     33.70,5813
337,     33.80,5875
338,     33.90,5852
339,     34.00,5852
340,     34.10,5791
341,     34.20,5792
342,     34.30,5818
343,     34.40,5708
344,     34.50,5717
345,     34.60,5757
346,     34.70,5758
347,     34.80,5837
348,     34.90,5818
349,     35.00,5734
350,     35.10,5783
351,     35.20,5675
352,     35.30,5733
353,     35.40,5931
354,     35.50,5866
355,     35.60,5717
356,     35.70,5776
357,     35.80,5837
358,     35.90,5850
359,     36.00,5904
360,     36.10,5848
361,     36.20,5804
362,     36.30,5821
363,     36.40,5790
364,     36.50,5810
365,     36.60,5829
366,     36.70,5853
367,     36.80,5979
368,     36.90,5794
369,     37.00,5819
370,     37.10,5772
371,     37.20,5813
372,     37.30,5986
373,     37.40,5838
374,     37.50,5867
375,     37.60,5958
376,     37.70,5849
377,     37.80,5796
378,     37.90,5775
379,     38.00,5769
380,     38.10,5668
381,     38.20,5746
382,     38.30,5805
383,     38.40,5889
384,     38.50,5710
385,     38.60,5824
386,     38.70,5888
387,     38.80,5944
388,     38.90,5851
389,     39.00,5761
390,     39.10,5784
391,     39.20,5723
392,     39.30,5820
393,     39.40,5895
394,     39.50,5818
395,     39.60,5926
396,     39.70,5754
397,     39.80,5926
398,     39.90,5730
399,     40.00,5902
400,     40.10,5806
401,     40.20,5848
402,     40.30,5810
403,     40.40,5675
404,     40.50,5938
405,     40.60,5797
406,     40.70,5742
407,     40.80,5857
408,     40.90,5581
409,     41.00,5796
410,     41.10,5974
411,     41.20,5801
412,     41.30,5808
413,     41.40,5811
414,     41.50,5702
415,     41.60,5820
416,     41.70,5733
417,     41.80,5875
418,     41.90,5866
419,     42.00,5721
420,     42.10,5785
421,     42.20,5759
422,     42.30,5936
423,     42.40,5730
424,     42.50,5947
425,     42.60,5832
426,     42.70,5758
427,     42.80,5927
428,     42.90,5784
429,     43.00,5783
430,     43.10,5700
431,     43.20,5917
432,     43.30,5747
433,     43.40,5903
434,     43.50,5902
435,     43.60,5689
436,     43.70,5850
437,     43.80,5676
438,     43.90,5796
439,     44.00,5790
440,     44.10,5741
441,     44.20,5978
442,     44.30,5757
443,     44.40,5943
444,     44.50,5729
445,     44.60,5723
446,     44.70,5872
447,     44.80,5723
448,     44.90,5855
449,     45.00,5935
450,     45.10,5774
451,     45.20,5927
452,     45.30,5688
453,     45.40,5880
454,     45.50,5759
455,     45.60,5741
456,     45.70,5727
457,     45.80,5768
458,     45.90,5895
459,     46.00,5664
460,     46.10,5787
461,     46.20,5827
462,     46.30,5681
463,     46.40,5780
464,     46.50,5628
465,     46.60,5955
466,     46.70,5863
467,     46.80,5977
468,     46.90,5739
469,     47.00,5753
470,     47.10,5787
471,     47.20,5686
472,     47.30,5851
473,     47.40,5803
474,     47.50,5677
475,     47.60,5894
476,     47.70,5888
477,     47.80,5860
478,     47.90,5810
479,     48.00,5771
480,     48.10,5640
481,     48.20,5721
482,     48.30,5717
483,     48.40,5686
484,     48.50,5932
485,     48.60,5838
486,     48.70,5733
487,     48.80,5982
488,     48.90,5876
489,     49.00,5792
490,     49.10,5881
491,     49.20,5821
492,     49.30,5771
493,     49.40,5812
494,     49.50,5799
495,     49.60,5873
496,     49.70,5705
497,     49.80,5796
498,     49.90,5745
499,     50.00,5813
500,     50.10,5784
501,     50.20,5681
502,     50.30,5682
503,     50.40,5864
504,     50.50,5910
505,     50.60,5776
506,     50.70,5825
507,     50.80,5922
508,     50.90,5959
509,     51.00,5888
510,     51.10,5811
511,     51.20,5753
512,     51.30,5769
513,     51.40,5841
514,     51.50,5805
515,     51.60,5701
516,     51.70,5702
517,     51.80,5697
518,     51.90,5836
519,     52.00,5761
520,     52.10,5715
521,     52.20,5692
522,     52.30,5685
523,     52.40,5783
524,     52.50,5713
525,     52.60,5707
526,     52.70,5715
527,     52.80,5786
528,     52.90,5799
529,     53.00,5764
530,     53.10,5890
531,     53.20,5892
532,     53.30,5779
533,     53.40,5802
534,     53.50,5890
535,     53.60,5726
536,     53.70,5720
537,     53.80,5836
538,     53.90,5881
539,     54.00,5807
540,     54.10,5716
541,     54.20,5752
542,     54.30,5782
543,     54.40,5787
544,     54.50,5907
545,     54.60,5675
546,     54.70,5845
547,     54.80,5839
548,     54.90,5777
549,     55.00,5849
550,     55.10,5766
551,     55.20,5818
552,     55.30,5846
553,     55.40,5750
554,     55.50,5741
555,     55.60,5837
556,     55.70,5933
557,     55.80,5918
558,     55.90,5762
559,     56.00,5831
560,     56.10,5805
561,     56.20,5951
562,     56.30,5829
563,     56.40,5713
564,     56.50,5671
565,     56.60,5798
566,     56.70,5835
567,     56.80,5896
568,     56.90,5679
569,     57.00,5794
570,     57.10,5707
571,     57.20,5689
572,     57.30,5742
573,     57.40,5912
574,     57.50,5801
575,     57.60,5849
576,     57.70,5853
577,     57.80,5776
578,     57.90,5803
579,     58.00,5959
580,     58.10,5800
581,     58.20,5796
582,     58.30,5758
583,     58.40,5891
584,     58.50,5834
585,     58.60,5766
586,     58.70,5778
587,     58.80,5773
588,     58.90,5802
589,     59.00,5728
590,     59.10,5804
591,     59.20,5708
592,     59.30,5817
593,     59.40,5806
594,     59.50,5928
595,     59.60,5867
596,     59.70,5747
597,     59.80,5745
598,     59.90,5696
599,     60.00,5802
600,     60.10,5908
601,     60.20,5796
602,     60.30,5728
603,     60.40,5827
604,     60.50,5863
605,     60.60,5753
606,     60.70,5790
607,     60.80,5768
608,     60.90,5790
609,     61.00,5769
610,     61.10,5824
611,     61.20,5918
612,     61.30,5773
613,     61.40,5876
614,     61.50,5750
615,     61.60,5736
616,     61.70,5749
617,     61.80,5690
618,     61.90,5689
619,     62.00,5793
620,     62.10,5910
621,     62.20,5907
622,     62.30,5936
623,     62.40,5758
624,     62.50,5752
625,     62.60,5762
626,     62.70,5993
627,     62.80,5928
628,     62.90,5863
629,     63.00,5812
630,     63.10,5774
631,     63.20,5775
632,     63.30,5825
633,     63.40,5919
634,     63.50,5764
635,     63.60,5622
636,     63.70,5906
637,     63.80,5855
638,     63.90,5921
639,     64.00,5981
640,     64.10,5647
641,     64.20,5845
642,     64.30,5783
643,     64.40,5712
644,     64.50,5732
645,     64.60,5898
646,     64.70,5879
647,     64.80,5740
648,     64.90,5767
649,     65.00,5701
650,     65.10,5791
651,     65.20,5705
652,     65.30,5861
653,     65.40,5719
654,     65.50,5703
655,     65.60,5824
656,     65.70,5776
657,     65.80,5965
658,     65.90,5824
659,     66.00,5941
660,     66.10,5656
661,     66.20,5738
662,     66.30,5802
663,     66.40,5798
664,     66.50,5732
665,     66.60,5828
666,     66.70,5727
667,     66.80,5795
668,     66.90,5839
669,     67.00,5575
670,     67.10,5752
671,     67.20,5729
672,     67.30,5716
673,     67.40,5781
674,     67.50,5875
675,     67.60,5796
676,     67.70,5850
677,     67.80,5653
678,     67.90,5842
679,     68.00,5793
680,     68.10,5718
681,     68.20,5759
682,     68.30,5713
683,     68.40,5871
684,     68.50,5711
685,     68.60,5737
686,     68.70,5648
687,     68.80,5803
688,     68.90,5860
689,     69.00,5778
690,     69.10,5684
691,     69.20,5701
692,     69.30,5616
693,     69.40,5824
694,     69.50,5782
695,     69.60,5748
696,     69.70,5772
697,     69.80,5747
698,     69.90,5852
699,     70.00,5852
700,     70.10,5795
701,     70.20,5871
702,     70.30,5711
703,     70.40,5793
704,     70.50,5838
705,     70.60,5808
706,     70.70,5760
707,     70.80,5836
708,     70.90,5735
709,     71.00,5852
710,     71.10,5758
711,     71.20,5738
712,     71.30,5840
713,     71.40,5906
714,     71.50,5909
715,     71.60,5696
716,     71.70,5805
717,     71.80,5800
718,     71.90,5724
719,     72.00,5765
720,     72.10,5711
721,     72.20,5709
722,     72.30,5785
723,     72.40,5668
724,     72.50,5817
725,     72.60,5810
726,     72.70,5883
727,     72.80,5748
728,     72.90,5732
729,     73.00,5743
730,     73.10,5804
731,     73.20,5741
732,     73.30,5801
733,     73.40,5726
734,     73.50,5823
735,     73.60,5899
736,     73.70,5680
737,     73.80,5736
738,     73.90,5774
739,     74.00,5717
740,     74.10,5802
741,     74.20,5709
742,     74.30,5747
743,     74.40,5733
744,     74.50,5652
745,     74.60,5664
746,     74.70,5723
747,     74.80,5843
748,     74.90,5841
749,     75.00,5793
750,     75.10,5721
751,     75.20,5606
752,     75.30,5737
753,     75.40,5623
754,     75.50,5657
755,     75.60,5620
756,     75.70,5718
757,     75.80,5712
758,     75.90,5833
759,     76.00,5728
760,     76.10,5719
761,     76.20,5839
762,     76.30,5664
763,     76.40,5702
764,     76.50,5779
765,     76.60,5778
766,     76.70,5716
767,     76.80,5740
768,     76.90,5679
769,     77.00,5852
770,     77.10,5790
771,     77.20,5749
772,     77.30,5753
773,     77.40,5783
774,     77.50,5740
775,     77.60,5718
776,     77.70,5706
777,     77.80,5781
778,     77.90,5747
779,     78.00,5615
780,     78.10,5806
781,     78.20,5786
782,     78.30,5786
783,     78.40,5683
784,     78.50,5671
785,     78.60,5728
786,     78.70,5740
787,     78.80,5704
788,     78.90,5727
789,     79.00,5544
790,     79.10,5664
791,     79.20,5540
792,     79.30,5614
793,     79.40,5634
794,     79.50,5806
795,     79.60,5573
796,     79.70,5656
797,     79.80,5776
798,     79.90,5816
799,     80.00,5834
800,     80.10,5653
801,     80.20,5717
802,     80.30,5606
803,     80.40,5577
804,     80.50,5626
805,     80.60,5770
806,     80.70,5726
807,     80.80,5635
808,     80.90,5570
809,     81.00,5614
810,     81.10,5655
811,     81.20,5827
812,     81.30,5696
813,     81.40,5576
814,     81.50,5605
815,     81.60,5803
816,     81.70,5422
817,     81.80,5686
818,     81.90,5642
819,     82.00,5805
820,     82.10,5680
821,     82.20,5653
822,     82.30,5650
823,     82.40,5620
824,     82.50,5643
825,     82.60,5560
826,     82.70,5678
827,     82.80,5645
828,     82.90,5760
829,     83.00,5656
830,     83.10,5612
831,     83.20,5672
832,     83.30,5638
833,     83.40,5595
834,     83.50,5685
835,     83.60,5639
836,     83.70,5569
837,     83.80,5636
838,     83.90,5641
839,     84.00,5522
840,     84.10,5646
841,     84.20,5603
842,     84.30,5568
843,     84.40,5784
844,     84.50,5530
845,     84.60,5645
846,     84.70,5626
847,     84.80,5669
848,     84.90,5619
849,     85.00,5548
850,     85.10,5545
851,     85.20,5616
852,     85.30,5645
853,     85.40,5591
854,     85.50,5585
855,     85.60,5564
856,     85.70,5606
857,     85.80,5610
858,     85.90,5503
859,     86.00,5616
860,     86.10,5636
861,     86.20,5599
862,     86.30,5466
863,     86.40,5381
864,     86.50,5611
865,     86.60,5515
866,     86.70,5596
867,     86.80,5508
868,     86.90,5610
869,     87.00,5536
870,     87.10,5470
871,     87.20,5547
872,     87.30,5421
873,     87.40,5556
874,     87.50,5501
875,     87.60,5421
876,     87.70,5449
877,     87.80,5499
878,     87.90,5578
879,     88.00,5510
880,     88.10,5563
881,     88.20,5356
882,     88.30,5474
883,     88.40,5586
884,     88.50,5538
885,     88.60,5436
886,     88.70,5516
887,     88.80,5546
888,     88.90,5505
889,     89.00,5388
890,     89.10,5384
891,     89.20,5434
892,     89.30,5443
893,     89.40,5475
894,     89.50,5360
895,     89.60,5423
896,     89.70,5547
897,     89.80,5477
898,     89.90,5370
899,     90.00,5501
900,     90.10,5272
901,     90.20,5524
902,     90.30,5369
903,     90.40,5401
904,     90.50,5382
905,     90.60,5363
906,     90.70,5447
907,     90.80,5463
908,     90.90,5243
909,     91.00,5384
910,     91.10,5437
911,     91.20,5576
912,     91.30,5359
913,     91.40,5172
914,     91.50,5454
915,     91.60,5259
916,     91.70,5364
917,     91.80,5466
918,     91.90,5435
919,     92.00,5356
920,     92.10,5342
921,     92.20,5375
922,     92.30,5464
923,     92.40,5224
924,     92.50,5360
925,     92.60,5256
926,     92.70,5371
927,     92.80,5414
928,     92.90,5224
929,     93.00,5288
930,     93.10,5339
931,     93.20,5338
932,     93.30,5226
933,     93.40,5383
934,     93.50,5204
935,     93.60,5268
936,     93.70,5231
937,     93.80,5294
938,     93.90,5276
939,     94.00,5160
940,     94.10,5358
941,     94.20,5214
942,     94.30,5331
943,     94.40,5070
944,     94.50,5211
945,     94.60,5207
946,     94.70,5133
947,     94.80,5198
948,     94.90,5381
949,     95.00,5181
950,     95.10,5209
951,     95.20,5163
952,     95.30,5315
953,     95.40,5261
954,     95.50,5186
955,     95.60,5284
956,     95.70,5243
957,     95.80,5227
958,     95.90,5271
959,     96.00,5220
960,     96.10,5116
961,     96.20,5232
962,     96.30,5291
963,     96.40,5192
964,     96.50,5213
965,     96.60,5332
966,     96.70,5231
967,     96.80,5195
968,     96.90,5315
969,     97.00,5170
970,     97.10,5042
971,     97.20,5284
972,     97.30,5268
973,     97.40,5320
974,     97.50,5160
975,     97.60,5209
976,     97.70,5078
977,     97.80,5427
978,     97.90,5193
979,     98.00,5173
980,     98.10,5350
981,     98.20,5091
982,     98.30,5208
983,     98.40,5262
984,     98.50,5271
985,     98.60,5258
986,     98.70,5340
987,     98.80,5303
988,     98.90,5292
989,     99.00,5165
990,     99.10,5309
991,     99.20,5067
992,     99.30,5157
993,     99.40,5081
994,     99.50,5211
995,     99.60,5149
996,     99.70,5164
997,     99.80,5336
998,     99.90,5195
999,    100.00,5251
1000,    100.10,5282
1001,    100.20,5230
1002,    100.30,5349
1003,    100.40,5145
1004,    100.50,5361
1005,    100.60,5382
1006,    100.70,5275
1007,    100.80,5256
1008,    100.90,5233
1009,    101.00,5274
1010,    101.10,5209
1011,    101.20,5268
1012,    101.30,5267
1013,    101.40,5170
1014,    101.50,5202
1015,    101.60,5374
1016,    101.70,5282
1017,    101.80,5372
1018,    101.90,5260
1019,    102.00,5241
1020,    102.10,5481
1021,    102.20,5234
1022,    102.30,5439
1023,    102.40,5366
1024,    102.50,5246
1025,    102.60,5209
1026,    102.70,5432
1027,    102.80,5256
1028,    102.90,5332
1029,    103.00,5240
1030,    103.10,5386
1031,    103.20,5159
1032,    103.30,5397
1033,    103.40,5253
1034,    103.50,5396
1035,    103.60,5306
1036,    103.70,5303
1037,    103.80,5318
1038,    103.90,5382
1039,    104.00,5441
1040,    104.10,5353
1041,    104.20,5342
1042,    104.30,5407
1043,    104.40,5392
1044,    104.50,5360
1045,    104.60,5274
1046,    104.70,5309
1047,    104.80,5339
1048,    104.90,5268
1049,    105.00,5524
1050,    105.10,5522
1051,    105.20,5444
1052,    105.30,5397
1053,    105.40,5475
1054,    105.50,5343
1055,    105.60,5326
1056,    105.70,5377
1057,    105.80,5383
1058,    105.90,5336
1059,    106.00,5349
1060,    106.10,5350
1061,    106.20,5342
1062,    106.30,5300
1063,    106.40,5528
1064,    106.50,5506
1065,    106.60,5533
1066,    106.70,5525
1067,    106.80,5413
1068,    106.90,5543
1069,    107.00,5400
1070,    107.10,5353
1071,    107.20,5519
1072,    107.30,5483
1073,    107.40,5566
1074,    107.50,5433
1075,    107.60,5473
1076,    107.70,5548
1077,    107.80,5456
1078,    107.90,5390
1079,    108.00,5543
1080,    108.10,5548
1081,    108.20,5419
1082,    108.30,5540
1083,    108.40,5562
1084,    108.50,5357
1085,    108.60,5560
1086,    108.70,5590
1087,    108.80,5547
1088,    108.90,5507
1089,    109.00,5381
1090,    109.10,5563
1091,    109.20,5493
1092,    109.30,5556
1093,    109.40,5493
1094,    109.50,5634
1095,    109.60,5569
1096,    109.70,5429
1097,    109.80,5493
1098,    109.90,5456
1099,    110.00,5617
1100,    110.10,5616
1101,    110.20,5455
1102,    110.30,5465
1103,    110.40,5494
1104,    110.50,5575
1105,    110.60,5554
1106,    110.70,5610
1107,    110.80,5563
1108,    110.90,5617
1109,    111.00,5447
1110,    111.10,5686
1111,    111.20,5622
1112,    111.30,5588
1113,    111.40,5624
1114,    111.50,5645
1115,    111.60,5673
1116,    111.70,5707
1117,    111.80,5648
1118,    111.90,5394
1119,    112.00,5533
1120,    112.10,5685
1121,    112.20,5627
1122,    112.30,5585
1123,    112.40,5546
1124,    112.50,5562
1125,    112.60,5671
1126,    112.70,5723
1127,    112.80,5674
1128,    112.90,5665
1129,    113.00,5562
1130,    113.10,5752
1131,    113.20,5626
1132,    113.30,5580
1133,    113.40,5662
1134,    113.50,5724
1135,    113.60,5663
1136,    113.70,5591
1137,    113.80,5554
1138,    113.90,5664
1139,    114.00,5690
1140,    114.10,5527
1141,    114.20,5660
1142,    114.30,5629
1143,    114.40,5658
1144,    114.50,5627
1145,    114.60,5642
1146,    114.70,5688
1147,    114.80,5624
1148,    114.90,5662
1149,    115.00,5544
1150,    115.10,5753
1151,    115.20,5651
1152,    115.30,5601
1153,    115.40,5548
1154,    115.50,5814
1155,    115.60,5704
1156,    115.70,5625
1157,    115.80,5856
1158,    115.90,5612
1159,    116.00,5648
1160,    116.10,5653
1161,    116.20,5685
1162,    116.30,5702
1163,    116.40,5684
1164,    116.50,5640
1165,    116.60,5755
1166,    116.70,5557
1167,    116.80,5712
1168,    116.90,5707
1169,    117.00,5609
1170,    117.10,5720
1171,    117.20,5582
1172,    117.30,5689
1173,    117.40,5711
1174,    117.50,5794
1175,    117.60,5627
1176,    117.70,5518
1177,    117.80,5841
1178,    117.90,5630
1179,    118.00,5507
1180,    118.10,5659
1181,    118.20,5824
1182,    118.30,5626
1183,    118.40,5725
1184,    118.50,5655
1185,    118.60,5749
1186,    118.70,5779
1187,    118.80,5695
1188,    118.90,5773
1189,    119.00,5718
1190,    119.10,5718
1191,    119.20,5683
1192,    119.30,5752
1193,    119.40,5802
1194,    119.50,5653
1195,    119.60,5729
1196,    119.70,5711
1197,    119.80,5808
1198,    119.90,5804
1199,    120.00,5832
1200,    120.10,5708
1201,    120.20,5747
1202,    120.30,5793
1203,    120.40,5805
1204,    120.50,5812
1205,    120.60,5761
1206,    120.70,5744
1207,    120.80,5678
1208,    120.90,5754
1209,    121.00,5643
1210,    121.10,5758
1211,    121.20,5679
1212,    121.30,5610
1213,    121.40,5701
1214,    121.50,5714
1215,    121.60,5557
1216,    121.70,5874
1217,    121.80,5714
1218,    121.90,5707
1219,    122.00,5730
1220,    122.10,5810
1221,    122.20,5803
1222,    122.30,5706
1223,    122.40,5798
1224,    122.50,5800
1225,    122.60,5774
1226,    122.70,5872
1227,    122.80,5727
1228,    122.90,5773
1229,    123.00,5732
1230,    123.10,5735
1231,    123.20,5798
1232,    123.30,5776
1233,    123.40,5791
1234,    123.50,5816
1235,    123.60,5732
1236,    123.70,5821
1237,    123.80,5723
1238,    123.90,5897
1239,    124.00,5684
1240,    124.10,5684
1241,    124.20,5652
1242,    124.30,5653
1243,    124.40,5919
1244,    124.50,5768
1245,    124.60,5778
1246,    124.70,5743
1247,    124.80,5785
1248,    124.90,5818
1249,    125.00,5755
1250,    125.10,5837
1251,    125.20,5880
1252,    125.30,5852
1253,    125.40,5712
1254,    125.50,5758
1255,    125.60,5767
1256,    125.70,5780
1257,    125.80,5878
1258,    125.90,5737
1259,    126.00,5879
1260,    126.10,5782
1261,    126.20,5794
1262,    126.30,5819
1263,    126.40,5763
1264,    126.50,5669
1265,    126.60,5771
1266,    126.70,5783
1267,    126.80,5789
1268,    126.90,5765
1269,    127.00,5840
1270,    127.10,5862
1271,    127.20,5898
1272,    127.30,5736
1273,    127.40,5682
1274,    127.50,5664
1275,    127.60,5736
1276,    127.70,5869
1277,    127.80,5705
1278,    127.90,5865
1279,    128.00,5770
1280,    128.10,5757
1281,    128.20,5739
1282,    128.30,5825
1283,    128.40,5790
1284,    128.50,5898
1285,    128.60,5682
1286,    128.70,5779
1287,    128.80,5948
1288,    128.90,5796
1289,    129.00,5781
1290,    129.10,5697
1291,    129.20,5733
1292,    129.30,5718
1293,    129.40,5776
1294,    129.50,5712
1295,    129.60,5748
1296,    129.70,5691
1297,    129.80,5730
1298,    129.90,5797
1299,    130.00,5696
1300,    130.10,5699
1301,    130.20,5645
1302,    130.30,5801
1303,    130.40,5800
1304,    130.50,5724
1305,    130.60,5737
1306,    130.70,5796
1307,    130.80,5827
1308,    130.90,5806
1309,    131.00,5681
1310,    131.10,5682
1311,    131.20,5780
1312,    131.30,5766
1313,    131.40,5849
1314,    131.50,5723
1315,    131.60,5843
1316,    131.70,5803
1317,    131.80,5921
1318,    131.90,5918
1319,    132.00,5892
1320,    132.10,5764
1321,    132.20,5815
1322,    132.30,5832
1323,    132.40,5805
1324,    132.50,5745
1325,    132.60,5757
1326,    132.70,5850
1327,    132.80,5886
1328,    132.90,5754
1329,    133.00,5872
1330,    133.10,5843
1331,    133.20,5864
1332,    133.30,5819
1333,    133.40,5873
1334,    133.50,5657
1335,    133.60,5801
1336,    133.70,5887
1337,    133.80,5803
1338,    133.90,5750
1339,    134.00,5753
1340,    134.10,5741
1341,    134.20,5692
1342,    134.30,5816
1343,    134.40,5664
1344,    134.50,5859
1345,    134.60,5694
1346,    134.70,5718
1347,    134.80,5937
1348,    134.90,5885
1349,    135.00,5896
1350,    135.10,5843
1351,    135.20,5718
1352,    135.30,5697
1353,    135.40,5744
1354,    135.50,5814
1355,    135.60,5744
1356,    135.70,5705
1357,    135.80,5801
1358,    135.90,5669
1359,    136.00,5774
1360,    136.10,5783
1361,    136.20,5802
1362,    136.30,5832
1363,    136.40,5880
1364,    136.50,5880
1365,    136.60,5776
1366,    136.70,5837
1367,    136.80,5872
1368,    136.90,5796
1369,    137.00,5749
1370,    137.10,5634
1371,    137.20,5763
1372,    137.30,5759
1373,    137.40,5787
1374,    137.50,5743
1375,    137.60,5797
1376,    137.70,5805
1377,    137.80,5747
1378,    137.90,5842
1379,    138.00,5863
1380,    138.10,5734
1381,    138.20,5851
1382,    138.30,5793
1383,    138.40,5891
1384,    138.50,5678
1385,    138.60,5748
1386,    138.70,5816
1387,    138.80,5722
1388,    138.90,5773
1389,    139.00,5754
1390,    139.10,5901
1391,    139.20,5730
1392,    139.30,5867
1393,    139.40,5773
1394,    139.50,5680
1395,    139.60,5773
1396,    139.70,5841
1397,    139.80,5991
1398,    139.90,5863
1399,    140.00,5788
1400,    140.10,5852
1401,    140.20,5812
1402,    140.30,5851
1403,    140.40,5824
1404,    140.50,5797
1405,    140.60,5816
1406,    140.70,5718
1407,    140.80,5754
1408,    140.90,5779
1409,    141.00,5912
1410,    141.10,5653
1411,    141.20,5942
1412,    141.30,5727
1413,    141.40,5904
1414,    141.50,5596
1415,    141.60,5815
1416,    141.70,5668
1417,    141.80,5771
1418,    141.90,5815
1419,    142.00,5897
1420,    142.10,5751
1421,    142.20,5649
1422,    142.30,5782
1423,    142.40,5805
1424,    142.50,6011
1425,    142.60,5880
1426,    142.70,5848
1427,    142.80,5830
1428,    142.90,5618
1429,    143.00,5894
1430,    143.10,5866
1431,    143.20,5922
1432,    143.30,5806
1433,    143.40,5726
1434,    143.50,5711
1435,    143.60,5856
1436,    143.70,5878
1437,    143.80,5864
1438,    143.90,5862
1439,    144.00,5658
1440,    144.10,5881
1441,    144.20,5931
1442,    144.30,5930
1443,    144.40,5856
1444,    144.50,5701
1445,    144.60,5858
1446,    144.70,5608
1447,    144.80,5889
1448,    144.90,5703
1449,    145.00,5771
1450,    145.10,5762
1451,    145.20,5811
1452,    145.30,5764
1453,    145.40,5880
1454,    145.50,5700
1455,    145.60,5704
1456,    145.70,5679
1457,    145.80,5721
1458,    145.90,5842
1459,    146.00,5796
1460,    146.10,5890
1461,    146.20,5787
1462,    146.30,5781
1463,    146.40,5838
1464,    146.50,5836
1465,    146.60,5855
1466,    146.70,5839
1467,    146.80,5936
1468,    146.90,5815
1469,    147.00,5703
1470,    147.10,5884
1471,    147.20,5893
1472,    147.30,5772
1473,    147.40,5853
1474,    147.50,5809
1475,    147.60,5797
1476,    147.70,5835
1477,    147.80,5864
1478,    147.90,5756
1479,    148.00,5908
1480,    148.10,5703
1481,    148.20,5937
1482,    148.30,5815
1483,    148.40,5819
1484,    148.50,5713
1485,    148.60,5686
1486,    148.70,5828
1487,    148.80,5839
1488,    148.90,5790
1489,    149.00,5918
1490,    149.10,5859
1491,    149.20,5798
1492,    149.30,5679
1493,    149.40,5711
1494,    149.50,5767
1495,    149.60,5809
1496,    149.70,5880
1497,    149.80,5762
1498,    149.90,5723
1499,    150.00,5829
1500,    150.10,5879
1501,    150.20,5807
1502,    150.30,5608
1503,    150.40,5922
1504,    150.50,5787
1505,    150.60,5670
1506,    150.70,5821
1507,    150.80,5815
1508,    150.90,5656
1509,    151.00,5768
1510,    151.10,6006
1511,    151.20,5779
1512,    151.30,5768
1513,    151.40,5700
1514,    151.50,5837
1515,    151.60,5746
1516,    151.70,5765
1517,    151.80,5734
1518,    151.90,5849
1519,    152.00,5852
1520,    152.10,5863
1521,    152.20,5911
1522,    152.30,5763
1523,    152.40,5830
1524,    152.50,5705
1525,    152.60,5707
1526,    152.70,5761
1527,    152.80,5839
1528,    152.90,5683
1529,    153.00,5846
1530,    153.10,5735
1531,    153.20,5860
1532,    153.30,5824
1533,    153.40,5753
1534,    153.50,5823
1535,    153.60,5771
1536,    153.70,5736
1537,    153.80,5796
1538,    153.90,5778
1539,    154.00,5799
1540,    154.10,5774
1541,    154.20,5675
1542,    154.30,5819
1543,    154.40,5897
1544,    154.50,5746
1545,    154.60,5936
1546,    154.70,5773
1547,    154.80,5758
1548,    154.90,5920
1549,    155.00,5815
1550,    155.10,5733
1551,    155.20,5751
1552,    155.30,5782
1553,    155.40,5854
1554,    155.50,5763
1555,    155.60,5920
1556,    155.70,5683
1557,    155.80,5727
1558,    155.90,5713
1559,    156.00,5728
1560,    156.10,5851
1561,    156.20,5743
1562,    156.30,5849
1563,    156.40,5818
1564,    156.50,5862
1565,    156.60,5814
1566,    156.70,5741
1567,    156.80,5837
1568,    156.90,5644
1569,    157.00,5834
1570,    157.10,5781
1571,    157.20,5908
1572,    157.30,5803
1573,    157.40,5829
1574,    157.50,5881
1575,    157.60,5884
1576,    157.70,5746
1577,    157.80,5902
1578,    157.90,5783
1579,    158.00,5621
1580,    158.10,5795
1581,    158.20,5676
1582,    158.30,5848
1583,    158.40,5893
1584,    158.50,5909
1585,    158.60,6000
1586,    158.70,6001
1587,    158.80,5739
1588,    158.90,5734
1589,    159.00,5821
1590,    159.10,5827
1591,    159.20,5745
1592,    159.30,5818
1593,    159.40,5867
1594,    159.50,5709
1595,    159.60,5806
1596,    159.70,5929
1597,    159.80,5777
1598,    159.90,5752
1599,    160.00,5777
1600,    160.10,5877
1601,    160.20,5857
1602,    160.30,5908
1603,    160.40,5813
1604,    160.50,5767
1605,    160.60,5839
1606,    160.70,5832
1607,    160.80,5678
1608,    160.90,5742
1609,    161.00,5784
1610,    161.10,5857
1611,    161.20,5771
1612,    161.30,5826
1613,    161.40,5780
1614,    161.50,6051
1615,    161.60,5907
1616,    161.70,5796
1617,    161.80,5818
1618,    161.90,5679
1619,    162.00,5790
1620,    162.10,5881
1621,    162.20,5800
1622,    162.30,5824
1623,    162.40,5844
1624,    162.50,5839
1625,    162.60,5759
1626,    162.70,5846
1627,    162.80,5779
1628,    162.90,5840
1629,    163.00,5853
1630,    163.10,5847
1631,    163.20,5899
1632,    163.30,5803
1633,    163.40,5781
1634,    163.50,5812
1635,    163.60,5757
1636,    163.70,5990
1637,    163.80,5797
1638,    163.90,5928
1639,    164.00,5811
1640,    164.10,5936
1641,    164.20,5766
1642,    164.30,5765
1643,    164.40,5998
1644,    164.50,5675
1645,    164.60,5659
1646,    164.70,5836
1647,    164.80,5774
1648,    164.90,5797
1649,    165.00,5827
1650,    165.10,5799
1651,    165.20,5883
1652,    165.30,5848
1653,    165.40,5841
1654,    165.50,5898
1655,    165.60,5716
1656,    165.70,5804
1657,    165.80,5919
1658,    165.90,5857
1659,    166.00,5761
1660,    166.10,5913
1661,    166.20,5854
1662,    166.30,5878
1663,    166.40,5795
1664,    166.50,5853
1665,    166.60,5733
1666,    166.70,5865
1667,    166.80,5745
1668,    166.90,5846
1669,    167.00,5852
1670,    167.10,5886
1671,    167.20,5838
1672,    167.30,5856
1673,    167.40,5812
1674,    167.50,5845
1675,    167.60,5900
1676,    167.70,5910
1677,    167.80,5837
1678,    167.90,5834
1679,    168.00,5910
1680,    168.10,5806
1681,    168.20,5872
1682,    168.30,5864
1683,    168.40,5782
1684,    168.50,5656
1685,    168.60,5860
1686,    168.70,5873
1687,    168.80,5839
1688,    168.90,5866
1689,    169.00,5828
1690,    169.10,5691
1691,    169.20,5871
1692,    169.30,5899
1693,    169.40,5778
1694,    169.50,5708
1695,    169.60,5704
1696,    169.70,5757
1697,    169.80,5843
1698,    169.90,5840
1699,    170.00,5894
1700,    170.10,5914
1701,    170.20,5786
1702,    170.30,5926
1703,    170.40,5858
1704,    170.50,5857
1705,    170.60,5847
1706,    170.70,5961
1707,    170.80,5802
1708,    170.90,5724
1709,    171.00,5797
1710,    171.10,5886
1711,    171.20,5784
1712,    171.30,5901
1713,    171.40,5786
1714,    171.50,5784
1715,    171.60,5710
1716,    171.70,5873
1717,    171.80,5878
1718,    171.90,5716
1719,    172.00,5836
1720,    172.10,5781
1721,    172.20,6002
1722,    172.30,5791
1723,    172.40,5822
1724,    172.50,5643
1725,    172.60,5747
1726,    172.70,5907
1727,    172.80,5847
1728,    172.90,5647
1729,    173.00,5830
1730,    173.10,5869
1731,    173.20,5817
1732,    173.30,5932
1733,    173.40,5785
1734,    173.50,5851
1735,    173.60,5704
1736,    173.70,5790
1737,    173.80,5863
1738,    173.90,5747
1739,    174.00,5812
1740,    174.10,5893
1741,    174.20,5753
1742,    174.30,5722
1743,    174.40,5718
1744,    174.50,5867
1745,    174.60,5858
1746,    174.70,5828
1747,    174.80,5813
1748,    174.90,5777
1749,    175.00,5855
1750,    175.10,5771
1751,    175.20,5820
1752,    175.30,5815
1753,    175.40,5835
1754,    175.50,5834
1755,    175.60,5899
1756,    175.70,5945
1757,    175.80,5836
1758,    175.90,5822
1759,    176.00,5784
1760,    176.10,5781
1761,    176.20,5764
1762,    176.30,5646
1763,    176.40,5844
1764,    176.50,5833
1765,    176.60,5764
1766,    176.70,5916
1767,    176.80,5781
1768,    176.90,5802
1769,    177.00,5749
1770,    177.10,5728
1771,    177.20,5719
1772,    177.30,5903
1773,    177.40,5820
1774,    177.50,5783
1775,    177.60,5794
1776,    177.70,5778
1777,    177.80,5958
1778,    177.90,5875
1779,    178.00,5911
1780,    178.10,5863
1781,    178.20,5728
1782,    178.30,5883
1783,    178.40,5799
1784,    178.50,5863
1785,    178.60,5808
1786,    178.70,5745
1787,    178.80,5853
1788,    178.90,5823
1789,    179.00,5802
1790,    179.10,5713
1791,    179.20,5964
1792,    179.30,5840
1793,    179.40,5859
1794,    179.50,5781
1795,    179.60,5833
1796,    179.70,5705
1797,    179.80,5783
1798,    179.90,5795
1799,    180.00,5725
1800,    180.10,5838
1801,    180.20,5950
1802,    180.30,5785
1803,    180.40,5763
1804,    180.50,5739
1805,    180.60,5806
1806,    180.70,5883
1807,    180.80,5872
1808,    180.90,5810
1809,    181.00,5777
1810,    181.10,5738
1811,    181.20,5880
1812,    181.30,5852
1813,    181.40,5884
1814,    181.50,5782
1815,    181.60,5771
1816,    181.70,5798
1817,    181.80,5771
1818,    181.90,5787
1819,    182.00,5749
1820,    182.10,5703
1821,    182.20,5757
1822,    182.30,5856
1823,    182.40,5759
1824,    182.50,5879
1825,    182.60,5643
1826,    182.70,5859
1827,    182.80,5756
1828,    182.90,5794
1829,    183.00,5798
1830,    183.10,5871
1831,    183.20,5763
1832,    183.30,5762
1833,    183.40,5902
1834,    183.50,5735
1835,    183.60,5727
1836,    183.70,5898
1837,    183.80,5828
1838,    183.90,5749
1839,    184.00,5831
1840,    184.10,5804
1841,    184.20,5869
1842,    184.30,5906
1843,    184.40,5876
1844,    184.50,5852
1845,    184.60,5975
1846,    184.70,5800
1847,    184.80,5799
1848,    184.90,5947
1849,    185.00,5908
1850,    185.10,5832
1851,    185.20,5766
1852,    185.30,5775
1853,    185.40,5789
1854,    185.50,5862
1855,    185.60,5796
1856,    185.70,5899
1857,    185.80,5648
1858,    185.90,5879
1859,    186.00,5836
1860,    186.10,5738
1861,    186.20,5771
1862,    186.30,5829
1863,    186.40,5837
1864,    186.50,5897
1865,    186.60,5673
1866,    186.70,5781
1867,    186.80,5659
1868,    186.90,5787
1869,    187.00,5673
1870,    187.10,5862
1871,    187.20,5747
1872,    187.30,5731
1873,    187.40,5922
1874,    187.50,5913
1875,    187.60,5641
1876,    187.70,5790
1877,    187.80,5921
1878,    187.90,5765
1879,    188.00,5827
1880,    188.10,5819
1881,    188.20,5804
1882,    188.30,5790
1883,    188.40,5859
1884,    188.50,5955
1885,    188.60,5996
1886,    188.70,5935
1887,    188.80,5800
1888,    188.90,5865
1889,    189.00,5904
1890,    189.10,5887
1891,    189.20,5695
1892,    189.30,5871
1893,    189.40,5770
1894,    189.50,5815
1895,    189.60,5834
1896,    189.70,5772
1897,    189.80,5957
1898,    189.90,5927
1899,    190.00,5747
1900,    190.10,5835
1901,    190.20,5872
1902,    190.30,5762
1903,    190.40,5825
1904,    190.50,5768
1905,    190.60,5778
1906,    190.70,5910
1907,    190.80,5847
1908,    190.90,5797
1909,    191.00,5891
1910,    191.10,5729
1911,    191.20,5838
1912,    191.30,5763
1913,    191.40,5691
1914,    191.50,5790
1915,    191.60,5851
1916,    191.70,5642
1917,    191.80,5814
1918,    191.90,5881
1919,    192.00,5719
1920,    192.10,5865
1921,    192.20,5805
1922,    192.30,5778
1923,    192.40,5735
1924,    192.50,5812
1925,    192.60,5678
1926,    192.70,5849
1927,    192.80,5874
1928,    192.90,5743
1929,    193.00,5901
1930,    193.10,5881
1931,    193.20,5886
1932,    193.30,5880
1933,    193.40,5797
1934,    193.50,5793
1935,    193.60,5928
1936,    193.70,5744
1937,    193.80,5962
1938,    193.90,5821
1939,    194.00,5942
1940,    194.10,5888
1941,    194.20,5793
1942,    194.30,5798
1943,    194.40,5695
1944,    194.50,5829
1945,    194.60,5817
1946,    194.70,5720
1947,    194.80,5949
1948,    194.90,5769
1949,    195.00,5857
1950,    195.10,5818
1951,    195.20,5670
1952,    195.30,5771
1953,    195.40,5875
1954,    195.50,5911
1955,    195.60,5778
1956,    195.70,5777
1957,    195.80,5776
1958,    195.90,5779
1959,    196.00,5791
1960,    196.10,5959
1961,    196.20,5899
1962,    196.30,5883
1963,    196.40,5914
1964,    196.50,5813
1965,    196.60,5933
1966,    196.70,5879
1967,    196.80,5766
1968,    196.90,5849
1969,    197.00,5843
1970,    197.10,5847
1971,    197.20,5965
1972,    197.30,5732
1973,    197.40,5923
1974,    197.50,5726
1975,    197.60,5841
1976,    197.70,5813
1977,    197.80,5774
1978,    197.90,5777
1979,    198.00,6057
1980,    198.10,5789
1981,    198.20,5847
1982,    198.30,5842
1983,    198.40,5795
1984,    198.50,5876
1985,    198.60,5912
1986,    198.70,5763
1987,    198.80,5819
1988,    198.90,5686
1989,    199.00,5826
1990,    199.10,5791
1991,    199.20,5810
1992,    199.30,5819
1993,    199.40,5903
1994,    199.50,5845
1995,    199.60,5827
1996,    199.70,5960
1997,    199.80,5843
1998,    199.90,5991
1999,    200.00,5884
2000,    200.10,5793
2001,    200.20,5841
2002,    200.30,5888
2003,    200.40,5851
2004,    200.50,5873
2005,    200.60,5708
2006,    200.70,5886
2007,    200.80,5743
2008,    200.90,5785
2009,    201.00,5805
2010,    201.10,5675
2011,    201.20,5984
2012,    201.30,5901
2013,    201.40,5802
2014,    201.50,5745
2015,    201.60,5879
2016,    201.70,5817
2017,    201.80,5854
2018,    201.90,5709
2019,    202.00,5745
2020,    202.10,5771
2021,    202.20,5908
2022,    202.30,5722
2023,    202.40,5729
2024,    202.50,5640
2025,    202.60,5793
2026,    202.70,5754
2027,    202.80,5796
2028,    202.90,5815
2029,    203.00,5897
2030,    203.10,5850
2031,    203.20,5815
2032,    203.30,5804
2033,    203.40,5846
2034,    203.50,5906
2035,    203.60,5819
2036,    203.70,5724
2037,    203.80,5767
2038,    203.90,5839
2039,    204.00,5863
2040,    204.10,5868
2041,    204.20,5954
2042,    204.30,5869
2043,    204.40,5827
2044,    204.50,5852
2045,    204.60,5867
2046,    204.70,5903
2047,    204.80,5855
